##YSI ASCII Datafile
#Source temp.dat
#InstrumentID 07E101066
#SystemSignature 870489733
#InstrumentType 600
#ProgramVer 306
#SiteName BAYT_CDT
#DateFormat YYYY MM DD HH mm ss
#StudyTime 2007 10 18 9 0 0
#FirstReadingTime 2007 10 18 9 0 33
#LoggingInterval 3600 Seconds
##Following Lines are in Tabular Format
#Channels 2 7 25 64 75 
#Sensors 1 4 22 211 28 
#ProbeTypes 0 0 0 0 0 
#ZeroScales 0 0 0 0 0 
#FullScales 0 0 0 0 0 
#ErrorFlag: NOERROR
#UserComments 
#ParameterNames Year Month Day Hour minute second Temperature Conductivity Depth DO+ Battery 
#ParameterUnits Year Month Day Hour minute second C mS/cm meters % volts 
2007 10 18 9 0 33 25.0793 -3.07336e-05 0.0103409 99.543 6.01562 
2007 10 18 10 0 33 24.2682 -3.07979e-05 0.0128145 101.188 6.01562 
2007 10 18 11 0 33 26.6101 8.34351 2.26776 75.0961 6.01562 
2007 10 18 12 0 33 26.6916 8.20215 2.22534 76.8166 6.01562 
2007 10 18 13 0 33 26.7438 8.01294 2.17529 81.4407 6.01562 
2007 10 18 14 0 33 26.7722 7.99768 2.11426 78.0754 6.01562 
2007 10 18 15 0 33 26.9891 7.82642 2.02789 76.6403 6.09375 
2007 10 18 16 0 33 27.0633 7.78284 1.96445 78.8811 6.01562 
2007 10 18 17 0 33 27.0807 7.6427 1.92883 78.7216 6.01562 
2007 10 18 18 0 33 27.3947 7.56262 1.89175 85.2592 6.01562 
2007 10 18 19 0 33 26.9608 7.38171 1.69519 78.2684 6.01562 
2007 10 18 20 0 33 27.3901 7.65247 1.81482 80.1819 6.01562 
2007 10 18 21 0 33 26.8994 7.21436 1.82367 75.3395 6.09375 
2007 10 18 22 0 33 26.7401 6.96875 1.85706 71.5126 6.01562 
2007 10 18 23 0 33 26.7172 7.3042 1.88492 70.2538 6.01562 
2007 10 19 0 0 33 26.7108 7.53296 1.97253 71.0091 6.01562 
2007 10 19 1 0 33 26.6211 8.62988 2.0332 66.3513 6.01562 
2007 10 19 2 0 33 26.7429 8.65161 2.13525 70.237 6.01562 
2007 10 19 3 0 33 26.3885 8.13599 2.20343 70.6734 6.01562 
2007 10 19 4 0 33 26.1807 7.81689 2.24597 69.2131 6.01562 
2007 10 19 5 0 33 26.2036 7.93225 2.27057 67.0563 6.01562 
2007 10 19 6 0 33 26.1844 7.71216 2.25153 59.3773 6.01562 
2007 10 19 7 0 33 26.1038 7.8562 2.24579 61.9118 6.01562 
2007 10 19 8 0 33 25.8557 7.65381 2.19568 65.8142 6.01562 
2007 10 19 9 0 33 25.7541 7.48926 2.16705 68.2648 6.01562 
2007 10 19 10 0 33 25.9848 7.10071 2.09387 65.2184 6.01562 
2007 10 19 11 0 33 26.0233 6.87463 2.10071 62.1384 6.01562 
2007 10 19 12 0 33 26.0205 6.83789 2.02948 63.3972 6.01562 
2007 10 19 13 0 33 26.1679 7.10645 2.06879 60.8963 6.01562 
2007 10 19 14 0 33 26.1917 7.57629 2.00623 72.5281 6.01562 
2007 10 19 15 0 33 26.1963 10.238 2.00684 67.8535 5.9375 
2007 10 19 16 0 33 26.2576 10.803 1.94452 67.1402 6.01562 
2007 10 19 17 0 33 26.3336 10.7527 1.89215 69.3474 6.01562 
2007 10 19 18 0 33 26.3135 11.5164 1.87015 64.4798 6.01562 
2007 10 19 19 0 33 26.2613 11.2844 1.86578 67.8032 6.01562 
2007 10 19 20 0 33 26.2558 11.9465 1.82935 65.8646 6.01562 
2007 10 19 21 0 33 26.1835 11.7856 1.85251 65.1428 6.01562 
2007 10 19 22 0 33 26.1981 13.3508 1.86319 64.8071 6.01562 
2007 10 19 23 0 33 26.1981 13.8557 1.93723 61.039 6.01562 
2007 10 20 0 0 33 26.1176 13.9341 1.94348 63.6909 6.01562 
2007 10 20 1 0 33 26.1505 15.7791 2.0423 61.5005 6.01562 
2007 10 20 2 0 33 26.0681 15.8464 2.11163 63.2378 6.01562 
2007 10 20 3 0 33 26.0434 16.5312 2.15881 65.2519 6.01562 
2007 10 20 4 0 33 26.0132 16.6938 2.21619 64.8659 6.01562 
2007 10 20 5 0 33 26.0269 16.2847 2.26306 63.3636 6.01562 
2007 10 20 6 0 33 26.0526 15.5315 2.28687 58.5716 6.01562 
2007 10 20 7 0 33 25.8466 15.3586 2.29266 63.372 6.01562 
2007 10 20 8 0 33 25.863 15.1213 2.31708 61.1061 6.01562 
2007 10 20 9 0 33 25.8438 15.1208 2.28625 59.0248 6.01562 
2007 10 20 10 0 33 25.8612 14.864 2.20325 59.6291 6.01562 
2007 10 20 11 0 33 25.6863 14.8989 2.22656 66.5863 6.01562 
2007 10 20 12 0 33 25.896 15.8167 2.211 65.9065 6.01562 
2007 10 20 13 0 33 26.0141 14.9265 2.20685 68.3319 5.9375 
2007 10 20 14 0 33 25.9885 17.106 2.12689 63.3804 6.01562 
2007 10 20 15 0 33 26.1267 16.7407 2.15265 69.5824 6.01562 
2007 10 20 16 0 33 26.1404 17.3511 2.0697 66.494 6.01562 
2007 10 20 17 0 33 26.1771 16.9048 2.02344 69.4061 6.01562 
2007 10 20 18 0 33 26.1349 16.5269 2.02563 71.5378 6.01562 
2007 10 20 19 0 33 26.0663 16.6719 1.97186 69.5068 5.9375 
2007 10 20 20 0 33 25.9061 16.2622 1.9151 75.1717 6.01562 
2007 10 20 21 0 33 26.0077 16.2568 1.90421 69.7502 6.01562 
2007 10 20 22 0 33 25.961 15.9316 1.87466 66.2003 5.9375 
2007 10 20 23 0 33 25.994 16.4893 1.90826 63.3888 6.01562 
2007 10 21 0 0 33 26.0452 17.0103 1.96024 61.7188 6.01562 
2007 10 21 1 0 33 25.9088 17.4067 2.01294 67.971 6.01562 
2007 10 21 2 0 33 25.7724 17.7095 2.07996 72.5449 6.01562 
2007 10 21 3 0 33 25.7257 17.9707 2.15527 67.7864 6.01562 
2007 10 21 4 0 33 25.7339 18.4004 2.24078 65.5121 6.01562 
2007 10 21 5 0 33 25.8136 19.0962 2.2851 62.5916 6.01562 
2007 10 21 6 0 33 25.7797 18.3735 2.31299 62.0041 6.01562 
2007 10 21 7 0 33 25.8292 18.6909 2.31049 61.5509 6.01562 
2007 10 21 8 0 33 25.5746 17.771 2.34149 65.5624 6.01562 
2007 10 21 9 0 33 25.5234 17.4897 2.33307 65.7639 6.01562 
2007 10 21 10 0 33 25.5124 17.3633 2.33655 66.5779 6.01562 
2007 10 21 11 0 33 25.5829 17.0024 2.30664 67.5766 5.9375 
2007 10 21 12 0 33 25.6644 17.3672 2.30261 68.9613 6.01562 
2007 10 21 13 0 33 25.7486 17.2603 2.31482 69.4565 5.9375 
2007 10 21 14 0 33 25.9134 16.9155 2.30627 72.8218 6.01562 
2007 10 21 15 0 33 25.8658 16.8296 2.289 73.9967 6.01562 
2007 10 21 16 0 33 25.8264 18.2275 2.27094 68.6676 6.01562 
2007 10 21 17 0 33 25.9125 17.4414 2.26953 75.65 6.01562 
2007 10 21 18 0 33 25.9473 17.3252 2.22772 80.1147 6.01562 
2007 10 21 19 0 33 25.8557 17.4209 2.15314 74.7604 5.9375 
2007 10 21 20 0 33 25.9042 16.8555 2.11072 75.1045 5.9375 
2007 10 21 21 0 33 25.8997 16.9634 2.02838 75.7675 5.9375 
2007 10 21 22 0 33 25.7623 16.4604 2.03998 72.419 6.01562 
2007 10 21 23 0 33 25.7687 16.3252 1.97787 69.2047 6.01562 
2007 10 22 0 0 33 25.7806 16.4307 1.93164 69.5068 5.9375 
2007 10 22 1 0 33 25.7971 16.4087 1.97318 67.9039 6.01562 
2007 10 22 2 0 33 25.7816 16.5947 2.04333 64.3204 5.9375 
2007 10 22 3 0 33 25.8109 17.4375 2.08887 63.8252 6.01562 
2007 10 22 4 0 33 25.831 18.7305 2.14758 63.9847 6.01562 
2007 10 22 5 0 33 25.6772 17.6743 2.2218 68.6592 6.01562 
2007 10 22 6 0 33 25.6973 18.3779 2.27228 64.9582 6.01562 
2007 10 22 7 0 33 25.6168 17.75 2.27539 67.5682 6.01562 
2007 10 22 8 0 33 25.5316 16.6587 2.27863 69.6243 6.01562 
2007 10 22 9 0 33 25.4749 16.0532 2.25372 65.6799 5.9375 
2007 10 22 10 0 33 25.5289 15.9846 2.224 64.0099 6.01562 
2007 10 22 11 0 33 25.3293 15.2107 2.20587 72.5281 6.01562 
2007 10 22 12 0 33 24.7058 13.8591 1.91818 79.1328 6.01562 
2007 10 22 13 0 33 24.2123 13.5161 1.79025 84.5207 6.01562 
2007 10 22 14 0 33 24.6646 15.0364 1.89157 77.8236 5.9375 
2007 10 22 15 0 33 24.357 14.512 1.84915 79.6364 5.9375 
2007 10 22 16 0 33 24.1299 14.1479 1.76834 83.1779 5.9375 
2007 10 22 17 0 33 23.6978 14.396 1.55264 86.7699 6.01562 
2007 10 22 18 0 33 22.3749 13.4729 1.6434 85.5949 5.9375 
2007 10 22 19 0 33 22.5854 13.3362 1.55646 84.3277 5.9375 
2007 10 22 20 0 33 21.6269 12.5044 1.5043 83.1528 5.9375 
2007 10 22 21 0 33 21.2643 11.9661 1.21097 84.034 5.9375 
2007 10 22 22 0 33 23.3737 13.3474 1.40219 78.0167 5.9375 
2007 10 22 23 0 33 23.5568 13.0623 1.15887 78.7216 5.9375 
2007 10 23 0 0 33 23.1458 12.6838 1.33331 77.6306 6.01562 
2007 10 23 1 0 33 23.1293 12.6086 1.25119 75.6332 5.9375 
2007 10 23 2 0 33 22.9068 12.4668 1.24054 74.6262 5.9375 
2007 10 23 3 0 33 23.056 12.1748 1.23029 71.8483 5.9375 
2007 10 23 4 0 33 22.8024 12.0129 1.27267 73.0064 5.9375 
2007 10 23 5 0 33 22.7393 11.8167 1.27719 72.0581 5.9375 
2007 10 23 6 0 33 22.6514 11.7422 1.30222 72.4106 5.9375 
2007 10 23 7 0 33 22.7072 11.7212 1.36905 72.2763 5.9375 
2007 10 23 8 0 33 22.0123 11.3215 1.33542 74.9535 5.9375 
2007 10 23 9 0 33 21.9244 11.6396 1.32809 74.8276 5.9375 
2007 10 23 10 0 33 21.55 11.4292 1.29251 77.8152 5.9375 
2007 10 23 11 0 33 21.6589 12.3662 1.27597 80.9959 5.9375 
2007 10 23 12 0 33 22.764 13.0559 1.20599 78.302 5.9375 
2007 10 23 13 0 33 22.8848 13.3672 1.15045 80.6183 5.9375 
2007 10 23 14 0 33 23.1549 13.6143 1.09695 80.9204 5.9375 
2007 10 23 15 0 33 23.035 13.6006 1.10626 79.3007 5.9375 
2007 10 23 16 0 33 22.9681 13.396 1.17102 77.8488 5.9375 
2007 10 23 17 0 33 22.6862 13.6135 1.19571 77.6222 6.01562 
2007 10 23 18 0 33 22.5909 13.9231 1.26703 77.7985 5.9375 
2007 10 23 19 0 33 22.4756 14.0002 1.31064 74.9199 5.9375 
2007 10 23 20 0 33 22.2028 14.4548 1.38538 74.0639 5.9375 
2007 10 23 21 0 33 22.1021 14.3535 1.49423 77.7397 5.9375 
2007 10 23 22 0 33 21.9739 14.4248 1.45352 74.1058 5.9375 
2007 10 23 23 0 33 21.8951 14.2637 1.45294 73.2414 5.9375 
2007 10 24 0 0 33 20.7965 12.9043 1.42078 70.8076 6.01562 
2007 10 24 1 0 33 21.2195 14.21 1.40793 72.7463 5.9375 
2007 10 24 2 0 33 21.1435 13.5525 1.39255 73.0316 5.9375 
2007 10 24 3 0 33 21.2195 13.4209 1.41583 74.1142 5.9375 
2007 10 24 4 0 34 21.8237 15.3501 1.44589 74.0807 5.9375 
2007 10 24 5 0 33 21.7834 16.5859 1.53033 72.8638 5.9375 
2007 10 24 6 0 33 21.7221 17.4854 1.58401 75.2892 5.85938 
2007 10 24 7 0 33 21.5967 17.5425 1.64951 74.836 5.9375 
2007 10 24 8 0 33 21.5353 17.6841 1.68637 73.9044 5.9375 
2007 10 24 9 0 33 20.7791 15.2515 1.68753 75.1717 5.9375 
2007 10 24 10 0 33 21.0693 15.3279 1.68118 75.3143 5.9375 
2007 10 24 11 0 33 20.8176 14.6831 1.62036 73.9967 5.9375 
2007 10 24 12 0 33 20.8533 14.6069 1.56189 73.0148 5.85938 
2007 10 24 13 0 33 20.5621 13.2268 1.48846 76.6655 5.9375 
2007 10 24 14 0 33 20.3726 12.6963 1.46783 82.7835 5.9375 
2007 10 24 15 0 33 20.4953 12.8101 1.42664 87.4664 5.9375 
2007 10 24 16 0 33 22.0416 16.1714 1.41376 82.045 5.9375 
2007 10 24 17 0 33 22.0123 15.6731 1.47931 77.5215 5.9375 
2007 10 24 18 0 33 21.8613 15.6509 1.55814 77.7817 5.9375 
2007 10 24 19 0 33 21.5765 16.2847 1.63501 77.2865 5.9375 
2007 10 24 20 0 33 21.3275 16.6904 1.72601 74.3828 5.9375 
2007 10 24 21 0 33 21.3312 16.3818 1.75439 75.0961 5.9375 
2007 10 24 22 0 33 21.3138 16.4253 1.77756 75.2472 5.9375 
2007 10 24 23 0 33 21.0574 15.8472 1.70691 73.5855 5.9375 
2007 10 25 0 0 33 21.0098 16.7915 1.65048 75.1549 5.9375 
2007 10 25 1 0 33 20.8524 15.2998 1.59259 72.8722 5.9375 
2007 10 25 2 0 33 20.6592 14.6338 1.53256 73.9212 5.85938 
2007 10 25 3 0 33 20.6326 14.6218 1.49435 71.5462 5.85938 
2007 10 25 4 0 33 20.8881 16.3198 1.54474 72.2343 5.85938 
2007 10 25 5 0 33 21.0199 16.9429 1.5903 71.2524 5.9375 
2007 10 25 6 0 33 21.1801 17.2168 1.65082 68.8942 5.85938 
2007 10 25 7 0 33 20.8075 17.3535 1.70862 70.665 5.9375 
2007 10 25 8 0 33 20.2957 16.8354 1.75824 71.3028 5.9375 
2007 10 25 9 0 33 20.2399 16.7197 1.427 74.2401 5.85938 
2007 10 25 10 0 33 18.6606 14.7551 1.67776 71.7644 5.85938 
2007 10 25 11 0 33 20.6381 18.0654 1.66553 71.9322 5.9375 
2007 10 25 12 0 33 19.9945 16.876 1.60028 71.9742 5.85938 
2007 10 25 13 0 33 19.8233 15.4268 1.5239 74.2569 5.85938 
2007 10 25 14 0 33 19.9442 15.0415 1.46973 73.703 5.9375 
2007 10 25 15 0 33 20.7315 16.0864 1.46295 78.9986 5.9375 
2007 10 25 16 0 33 21.3065 17.0835 1.49835 75.7088 5.9375 
2007 10 25 17 0 33 21.4383 17.8325 1.57968 70.9503 5.85938 
2007 10 25 18 0 33 21.3696 21.127 1.64981 69.6411 5.9375 
2007 10 25 19 0 33 21.2003 22.3457 1.77634 74.5087 5.9375 
2007 10 25 20 0 33 21.106 23.374 1.88684 74.8947 5.85938 
2007 10 25 21 0 33 20.9943 22.9854 1.92923 75.3983 5.9375 
2007 10 25 22 0 33 21.0419 23.3833 1.9744 76.9257 5.85938 
2007 10 25 23 0 33 20.7819 20.0825 1.96289 73.2666 5.85938 
2007 10 26 0 0 33 20.997 20.9292 1.96307 71.4287 5.9375 
2007 10 26 1 0 33 20.7343 19.6533 1.93851 74.0807 5.9375 
2007 10 26 2 0 33 20.271 17.958 1.92969 73.3505 5.9375 
2007 10 26 3 0 33 20.5136 19.2422 1.78799 76.4725 5.85938 
2007 10 26 4 0 33 20.6363 19.812 1.888 73.4512 5.85938 
2007 10 26 5 0 33 20.7278 19.9316 1.89011 71.328 5.9375 
2007 10 26 6 0 33 20.7104 19.4736 1.90964 71.2105 5.85938 
2007 10 26 7 0 33 20.6683 19.3252 1.92538 70.4216 5.85938 
2007 10 26 8 0 33 20.4834 18.9834 1.94144 70.0607 5.85938 
2007 10 26 9 0 33 20.5209 18.8687 1.86621 66.7374 5.85938 
2007 10 26 10 0 33 20.672 19.7891 1.83029 72.2008 5.85938 
2007 10 26 11 0 33 20.4852 18.7158 1.74963 69.2719 5.85938 
2007 10 26 12 0 33 20.4175 17.6514 1.6633 64.3036 5.85938 
2007 10 26 13 0 33 20.2344 17.7222 1.58188 62.986 5.85938 
2007 10 26 14 0 33 20.77 17.4023 1.56476 71.3867 5.9375 
2007 10 26 15 0 33 21.3852 18.7729 1.50394 69.9684 5.85938 
2007 10 26 16 0 33 21.4868 18.9194 1.52591 75.2724 5.85938 
2007 10 26 17 0 33 21.4703 19.3154 1.54926 68.3151 5.85938 
2007 10 26 18 0 33 21.3348 20.4355 1.68719 73.04 5.85938 
2007 10 26 19 0 33 21.2204 21.9287 1.81042 71.907 5.85938 
2007 10 26 20 0 33 21.1536 22.2651 1.89462 71.4287 5.85938 
2007 10 26 21 0 33 21.1096 22.6802 1.9881 67.9878 5.85938 
2007 10 26 22 0 33 21.1472 22.9829 2.06122 66.4185 5.85938 
2007 10 26 23 0 33 20.9366 22.9258 2.09741 72.2176 5.85938 
2007 10 27 0 0 33 20.8597 21.5698 2.08801 69.6579 5.9375 
2007 10 27 1 0 33 20.8139 20.4512 2.02686 68.9781 5.85938 
2007 10 27 2 0 33 20.7095 20.6304 2.08844 66.9724 5.9375 
2007 10 27 3 0 33 20.6638 20.9282 2.03906 71.0007 5.85938 
2007 10 27 4 0 33 20.4303 20.6313 2.01819 72.2511 5.85938 
2007 10 27 5 0 33 20.3799 20.2285 1.99585 69.7418 5.9375 
2007 10 27 6 0 33 20.5264 19.3975 1.98306 70.6314 5.85938 
2007 10 27 7 0 33 20.2225 18.4102 1.96814 65.3191 5.85938 
2007 10 27 8 0 33 20.2115 19.0918 1.94501 68.9613 5.85938 
2007 10 27 9 0 33 20.3717 18.6562 1.90237 62.9692 5.85938 
2007 10 27 10 0 33 20.0696 18.4927 1.91782 61.6768 5.85938 
2007 10 27 11 0 33 20.054 18.439 1.80112 63.9091 5.85938 
2007 10 27 12 0 33 20.1611 18.6743 1.7211 66.5024 5.85938 
2007 10 27 13 0 33 20.5429 18.8267 1.61975 66.5443 5.85938 
2007 10 27 14 0 33 20.6107 18.8862 1.55731 75.1549 5.85938 
2007 10 27 15 0 33 20.9521 19.231 1.53296 69.2802 5.85938 
2007 10 27 16 0 33 20.8606 19.3545 1.51248 71.8315 5.85938 
2007 10 27 17 0 33 21.0254 19.3628 1.5585 72.2176 5.85938 
2007 10 27 18 0 33 21.095 19.4209 1.64807 70.472 5.85938 
2007 10 27 19 0 33 21.0464 20.7671 1.72021 68.3739 5.85938 
2007 10 27 20 0 33 20.9961 21.9868 1.83371 73.2918 5.85938 
2007 10 27 21 0 33 20.8322 23.0098 1.94556 75.1129 5.85938 
2007 10 27 22 0 33 20.8121 23.3911 2.05054 72.6875 5.85938 
2007 10 27 23 0 33 20.8725 24.0591 2.15375 74.987 5.85938 
2007 10 28 0 0 33 20.7938 23.8843 2.14075 70.153 5.85938 
2007 10 28 1 0 33 20.239 22.9893 2.2251 74.1058 5.85938 
2007 10 28 2 0 33 20.2811 22.4551 2.22046 74.5338 5.85938 
2007 10 28 3 0 33 20.1685 22.0488 2.16785 74.5087 5.85938 
2007 10 28 4 0 33 20.0897 21.7227 2.18683 73.8289 5.85938 
2007 10 28 5 0 33 20.1062 22.6743 2.1521 73.1827 5.85938 
2007 10 28 6 0 33 20.0906 22.6665 2.14502 69.4817 5.85938 
2007 10 28 7 0 33 19.8288 20.9331 2.14551 72.5449 5.85938 
2007 10 28 8 0 33 19.675 21.6377 2.13745 75.1717 5.85938 
2007 10 28 9 0 33 19.5944 21.3911 2.10895 74.2401 5.85938 
2007 10 28 10 0 33 19.5367 20.6235 2.08173 72.4693 5.85938 
2007 10 28 11 0 33 19.5331 20.3115 2.01178 67.5766 5.85938 
2007 10 28 12 0 33 19.7363 20.6938 1.96127 80.7861 5.85938 
2007 10 28 13 0 33 19.9432 20.438 1.87064 79.3678 5.85938 
2007 10 28 14 0 33 20.0705 20.0322 1.7728 79.4098 5.85938 
2007 10 28 15 0 33 20.5182 20.1562 1.68994 79.8965 5.85938 
2007 10 28 16 0 33 20.7196 19.981 1.6398 93.1396 5.85938 
2007 10 28 17 0 33 20.834 20.0425 1.62259 84.7389 5.85938 
2007 10 28 18 0 33 20.9174 20.188 1.67969 85.3264 5.85938 
2007 10 28 19 0 33 20.8514 20.5239 1.72113 76.8585 5.78125 
2007 10 28 20 0 33 20.7095 22.8872 1.84879 77.5299 5.85938 
2007 10 28 21 0 33 20.5869 23.4341 1.94046 79.0741 5.85938 
2007 10 28 22 0 33 20.6052 23.8667 2.05658 75.2052 5.85938 
2007 10 28 23 0 33 20.618 25.1719 2.12695 78.1258 5.78125 
2007 10 29 0 0 33 20.4248 25.1748 2.20984 75.5913 5.85938 
2007 10 29 1 0 33 20.0082 24.5996 2.22882 72.7043 5.85938 
2007 10 29 2 0 33 19.9149 23.8491 2.23761 77.6222 5.78125 
2007 10 29 3 0 33 20.0467 23.4473 2.2431 77.6306 5.85938 
2007 10 29 4 0 33 20.0247 23.374 2.20709 75.7004 5.85938 
2007 10 29 5 0 33 19.8874 23.7705 2.20001 79.3678 5.78125 
2007 10 29 6 0 33 19.7638 22.9648 2.18915 80.2238 5.85938 
2007 10 29 7 0 34 19.6082 22.7124 2.16833 78.5873 5.85938 
2007 10 29 8 0 33 19.4516 22.3579 2.23212 78.7971 5.85938 
2007 10 29 9 0 33 19.306 22.002 2.17157 80.4672 5.85938 
2007 10 29 10 0 33 19.1229 21.6479 2.15399 79.1161 5.78125 
2007 10 29 11 0 33 19.1101 21.5977 2.125 71.0342 5.85938 
2007 10 29 12 0 33 19.23 21.522 2.04468 73.6526 5.85938 
2007 10 29 13 0 33 19.5935 21.3726 1.94791 78.2349 5.85938 
2007 10 29 14 0 33 19.8938 21.1909 1.88028 77.5383 5.85938 
2007 10 29 15 0 33 20.4651 21.0195 1.8472 86.6272 5.78125 
2007 10 29 16 0 33 20.4706 21.0015 1.70895 76.2878 5.85938 
2007 10 29 17 0 33 20.8524 21.2324 1.66553 82.859 5.78125 
2007 10 29 18 0 33 20.8835 21.374 1.65765 81.4743 5.78125 
2007 10 29 19 0 33 20.7855 21.439 1.70279 82.2716 5.78125 
2007 10 29 20 0 33 20.8112 22.604 1.7652 73.9799 5.85938 
2007 10 29 21 0 33 20.6583 23.7412 1.8931 76.2543 5.85938 
2007 10 29 22 0 33 20.5814 24.8999 1.97931 78.9398 5.85938 
2007 10 29 23 0 33 20.4898 25.7734 2.09186 80.2322 5.85938 
2007 10 30 0 0 33 20.4404 26.2573 2.14276 79.1664 5.78125 
2007 10 30 1 0 33 20.4523 26.4712 2.22754 78.4615 5.78125 
2007 10 30 2 0 33 20.3909 26.4497 2.26556 73.7785 5.85938 
2007 10 30 3 0 33 19.9716 25.7666 2.18207 70.9503 5.78125 
2007 10 30 4 0 33 20.2078 25.877 2.32489 72.3854 5.85938 
2007 10 30 5 0 33 20.1346 25.8481 2.32196 73.1155 5.78125 
2007 10 30 6 0 33 19.9277 25.3311 2.34778 76.6319 5.85938 
2007 10 30 7 0 33 19.8297 25.0459 2.33972 76.0277 5.85938 
2007 10 30 8 0 33 19.805 25.1304 2.34515 75.6584 5.78125 
2007 10 30 9 0 33 19.6805 24.8809 2.34235 78.2516 5.85938 
2007 10 30 10 0 33 19.4983 23.7212 2.29053 80.9204 5.85938 
2007 10 30 11 0 33 19.7702 23.6577 2.13269 81.2393 5.78125 
2007 10 30 12 0 33 19.9625 23.9775 2.20154 79.1748 5.85938 
2007 10 30 13 0 33 19.8956 23.2314 2.16058 82.2968 5.78125 
2007 10 30 14 0 33 20.1328 23.7368 2.05237 83.6479 5.78125 
2007 10 30 15 0 33 20.2609 23.0264 1.95734 87.3154 5.85938 
2007 10 30 16 0 33 20.5273 23.9307 1.87473 81.2813 5.78125 
2007 10 30 17 0 33 20.6729 23.8813 1.79694 79.007 5.78125 
2007 10 30 18 0 33 20.7443 23.8945 1.74979 79.8546 5.78125 
2007 10 30 19 0 33 21.0931 24.0742 1.78564 81.6338 5.78125 
2007 10 30 20 0 33 21.0602 24.1445 1.78455 79.9301 5.78125 
2007 10 30 21 0 33 20.9906 24.2231 1.84338 79.1412 5.85938 
2007 10 30 22 0 33 20.7928 24.4761 1.92752 74.1142 5.85938 
2007 10 30 23 0 33 20.7233 24.9927 2.01788 82.8926 5.78125 
2007 10 31 0 0 33 20.6125 25.5718 2.08728 88.0203 5.78125 
2007 10 31 1 0 33 20.5493 26.1504 2.16742 81.2309 5.85938 
2007 10 31 2 0 33 20.4962 26.4546 2.21497 81.4743 5.78125 
2007 10 31 3 0 33 20.4953 26.5146 2.28839 73.703 5.78125 
2007 10 31 4 0 33 20.5695 26.7324 2.25354 75.8347 5.85938 
2007 10 31 5 0 33 20.4935 26.5215 2.30896 71.8735 5.85938 
2007 10 31 6 0 33 20.4733 26.3926 2.33215 60.804 5.78125 
2007 10 31 7 0 33 20.3259 26.1421 2.32916 68.0634 5.78125 
2007 10 31 8 0 33 20.3561 25.4429 2.33459 72.5197 5.78125 
2007 10 31 9 0 33 20.4047 25.335 2.32886 72.9393 5.78125 
2007 10 31 10 0 33 20.3397 24.7837 2.29858 80.291 5.78125 
2007 10 31 11 0 33 20.4944 25.0288 2.27032 84.0759 5.85938 
2007 10 31 12 0 33 20.748 24.5229 2.23132 97.8477 5.78125 
2007 10 31 13 0 33 21.3495 23.9927 2.16046 93.8698 5.78125 
2007 10 31 14 0 33 21.0208 23.8218 2.10931 77.7985 5.78125 
2007 10 31 15 0 33 21.1215 23.6934 2.02435 85.5026 5.85938 
2007 10 31 16 0 33 21.1279 24.5098 1.96301 87.9448 5.78125 
2007 10 31 17 0 33 21.2241 24.9849 1.87723 81.9695 5.78125 
2007 10 31 18 0 33 21.2817 25.1963 1.86084 82.2212 5.78125 
2007 10 31 19 0 33 21.5244 25.0483 1.84592 81.7009 5.78125 
2007 10 31 20 0 33 21.3623 25.0913 1.77313 81.0043 5.78125 
2007 10 31 21 0 34 21.29 25.207 1.80942 88.5826 5.78125 
2007 10 31 22 0 33 21.1426 25.4717 1.87567 77.3537 5.85938 
2007 10 31 23 0 33 21.1444 25.6318 1.93393 78.4363 5.78125 
2007 11 1 0 0 33 21.1206 26.0215 2.03748 85.5614 5.78125 
2007 11 1 1 0 33 21.0327 27.0103 2.10986 85.2928 5.78125 
2007 11 1 2 0 34 20.9824 27.0977 2.19891 80.098 5.78125 
2007 11 1 3 0 33 21.0172 26.9473 2.2348 72.5616 5.78125 
2007 11 1 4 0 33 20.997 27.0352 2.27258 60.9718 5.78125 
2007 11 1 5 0 33 20.9979 26.917 2.2876 69.5572 5.78125 
2007 11 1 6 0 33 20.8615 26.1401 2.28741 76.4053 5.78125 
2007 11 1 7 0 33 20.8881 26.0312 2.27203 69.0872 5.85938 
2007 11 1 8 0 33 20.9146 25.9526 2.27905 73.317 5.78125 
2007 11 1 9 0 33 21.051 25.1885 2.26831 71.7392 5.78125 
2007 11 1 10 0 33 21.1435 24.9468 2.21674 75.5493 5.78125 
2007 11 1 11 0 33 21.0904 25.7573 2.1192 76.6991 5.78125 
2007 11 1 12 0 33 21.1234 25.8643 2.11859 69.809 5.78125 
2007 11 1 13 0 33 21.246 25.7363 2.06616 72.8386 5.78125 
2007 11 1 14 0 33 21.853 25.7905 2.01135 63.9259 5.78125 
2007 11 1 15 0 33 21.8137 25.5752 1.99225 72.9141 5.78125 
2007 11 1 16 0 33 21.8768 25.3311 1.89951 79.6951 5.78125 
2007 11 1 17 0 33 21.9931 25.2886 1.83514 76.8669 5.78125 
2007 11 1 18 0 33 22.2055 25.3682 1.82092 83.5724 5.85938 
2007 11 1 19 0 33 22.0901 25.3047 1.78229 75.071 5.78125 
2007 11 1 20 0 33 22.265 25.5474 1.73102 65.8226 5.85938 
2007 11 1 21 0 33 22.1231 25.4712 1.72531 69.1711 5.78125 
2007 11 1 22 0 33 21.7834 25.6226 1.78848 85.5446 5.78125 
2007 11 1 23 0 33 21.5573 25.7329 1.81622 80.8449 5.78125 
2007 11 2 0 0 33 21.5472 26.4194 1.90237 85.0327 5.78125 
2007 11 2 1 0 33 21.5381 26.9204 1.97729 84.6466 5.78125 
2007 11 2 2 0 33 21.5637 26.6968 2.04291 84.2606 5.85938 
2007 11 2 3 0 33 21.452 27.2246 2.11176 79.8378 5.78125 
2007 11 2 4 0 33 21.4484 27.3945 2.14868 80.954 5.78125 
2007 11 2 5 0 33 21.4951 27.7476 2.2038 71.9406 5.85938 
2007 11 2 6 0 33 21.42 27.6484 2.20978 46.2265 5.78125 
2007 11 2 7 0 33 21.409 27.5566 2.24152 50.6325 5.78125 
2007 11 2 8 0 33 21.2497 27.0132 2.24609 65.8478 5.78125 
2007 11 2 9 0 33 21.2076 26.5415 2.22815 61.6096 5.85938 
2007 11 2 10 0 33 21.2405 26.5903 2.1983 81.8184 5.78125 
2007 11 2 11 0 33 21.3165 26.5044 2.20416 72.3854 5.78125 
2007 11 2 12 0 33 21.6013 26.5801 2.15363 80.8029 5.85938 
2007 11 2 13 0 33 21.6635 26.5366 2.15228 81.5582 5.78125 
2007 11 2 14 0 33 21.7953 26.8081 2.0202 86.4342 5.78125 
2007 11 2 15 0 33 21.777 26.6353 2.03387 82.7164 5.78125 
2007 11 2 16 0 33 21.8494 26.8403 1.99374 77.9579 5.78125 
2007 11 2 17 0 33 21.9098 26.7983 1.94711 77.832 5.78125 
2007 11 2 18 0 33 22.3254 26.3579 1.95996 83.6647 5.78125 
2007 11 2 19 0 33 22.211 26.2065 1.9053 83.1276 5.78125 
2007 11 2 20 0 33 22.016 26.4175 1.85721 73.9883 5.78125 
2007 11 2 21 0 33 21.8979 26.5308 1.8161 73.5352 5.78125 
2007 11 2 22 0 33 21.8274 26.4873 1.79947 74.2401 5.78125 
2007 11 2 23 0 33 21.8915 26.4058 1.79517 81.2393 5.78125 
2007 11 3 0 0 33 21.7743 26.3052 1.85635 81.0799 5.78125 
2007 11 3 1 0 33 21.7148 26.4438 1.90692 84.0843 5.78125 
2007 11 3 2 0 33 21.6525 27.2979 2.0116 80.484 5.78125 
2007 11 3 3 0 33 21.6324 27.3208 2.06824 81.768 5.78125 
2007 11 3 4 0 33 21.6068 27.7437 2.13171 74.9031 5.78125 
2007 11 3 5 0 33 21.6077 27.7764 2.17981 55.3741 5.78125 
2007 11 3 6 0 33 21.572 27.6006 2.19672 73.4848 5.78125 
2007 11 3 7 0 33 21.3843 27.2417 2.20422 57.6149 5.85938 
2007 11 3 8 0 33 21.4676 26.7451 2.18427 76.8501 5.78125 
2007 11 3 9 0 33 21.5527 26.6948 2.16589 74.3996 5.78125 
2007 11 3 10 0 33 21.5701 26.3633 2.14636 75.3479 5.78125 
2007 11 3 11 0 33 21.6434 26.248 2.04773 84.034 5.78125 
2007 11 3 12 0 33 21.8274 26.166 2.07837 82.943 5.78125 
2007 11 3 13 0 33 22.0755 26.1152 2.08759 84.3361 5.78125 
2007 11 3 14 0 33 22.1707 26.1748 2.04633 84.5879 5.78125 
2007 11 3 15 0 33 21.8832 26.2241 2.04419 83.0185 5.78125 
2007 11 3 16 0 33 22.103 26.3657 1.99783 88.163 5.78125 
2007 11 3 17 0 33 22.1771 26.3823 2.03204 66.3933 5.78125 
2007 11 3 18 0 33 22.1469 26.6128 2.00684 78.2516 5.78125 
2007 11 3 19 0 33 22.5012 26.6313 1.95032 77.2614 5.78125 
2007 11 3 20 0 33 22.2192 26.4302 1.94913 62.8853 5.78125 
2007 11 3 21 0 33 22.2568 26.6821 1.91531 74.0723 5.78125 
2007 11 3 22 0 33 22.515 26.4048 1.88147 83.2115 5.78125 
2007 11 3 23 0 33 22.4197 26.2764 1.87848 74.0723 5.78125 
2007 11 4 0 0 33 22.2806 26.2393 1.86716 81.7177 5.78125 
2007 11 4 1 0 33 22.157 26.5366 1.93646 83.6311 5.78125 
2007 11 4 2 0 33 21.994 26.9712 1.95789 84.5963 5.78125 
2007 11 4 3 0 33 21.9794 27.7612 2.04773 82.5317 5.78125 
2007 11 4 4 0 33 21.9327 28.1318 2.0603 81.6589 5.78125 
2007 11 4 5 0 33 21.9501 27.9331 2.12256 81.2813 5.78125 
2007 11 4 6 0 33 21.9427 28.1177 2.13721 62.7846 5.78125 
2007 11 4 7 0 33 21.9281 28.3022 2.14288 51.4214 5.78125 
2007 11 4 8 0 33 21.8558 27.396 2.11255 78.495 5.78125 
2007 11 4 9 0 33 21.8777 27.2534 2.08923 77.8236 5.78125 
2007 11 4 10 0 33 21.9336 27.0249 2.03003 77.7397 5.78125 
2007 11 4 11 0 33 22.1313 26.9756 1.97272 65.126 5.78125 
2007 11 4 12 0 33 22.2275 26.7407 1.93948 64.9078 5.78125 
2007 11 4 13 0 33 22.3181 26.4385 1.92548 81.2477 5.78125 
2007 11 4 14 0 33 22.2522 26.6001 1.79929 89.3715 5.78125 
2007 11 4 15 0 33 22.178 26.5933 1.86584 88.121 5.70312 
2007 11 4 16 0 33 22.1277 26.6045 1.90881 84.8984 5.78125 
2007 11 4 17 0 33 22.2815 26.936 1.9267 87.1475 5.78125 
2007 11 4 18 0 33 22.3062 27.2451 1.96033 80.9959 5.78125 
2007 11 4 19 0 33 22.2952 27.6001 1.9726 84.8228 5.78125 
2007 11 4 20 0 33 22.3126 27.7378 1.98605 87.3825 5.78125 
2007 11 4 21 0 33 22.2092 27.2231 1.95511 86.7699 5.70312 
2007 11 4 22 0 33 22.2714 26.9727 1.96219 81.3904 5.78125 
2007 11 4 23 0 33 22.2037 27.1602 1.9249 79.1748 5.78125 
2007 11 5 0 0 33 22.1387 27.3779 1.92371 78.8055 5.78125 
2007 11 5 1 0 33 22.103 27.3203 1.94128 80.0224 5.78125 
2007 11 5 2 0 33 22.092 27.3643 1.96957 76.8417 5.78125 
2007 11 5 3 0 33 22.1405 27.647 1.98862 72.0078 5.78125 
2007 11 5 4 0 33 22.2101 28.0776 2.06763 75.3731 5.78125 
2007 11 5 5 0 33 22.2119 28.0591 2.1192 83.2031 5.78125 
2007 11 5 6 0 33 22.2028 28.1055 2.11237 80.7945 5.78125 
2007 11 5 7 0 33 22.1844 28.1455 2.14642 72.3602 5.78125 
2007 11 5 8 0 33 22.2083 28.2754 2.1618 77.2781 5.78125 
2007 11 5 9 0 33 21.8796 27.7305 2.13885 77.1103 5.78125 
2007 11 5 10 0 33 21.9427 27.5195 2.12134 77.446 5.78125 
2007 11 5 11 0 33 22.0572 27.459 2.07263 72.1588 5.70312 
2007 11 5 12 0 33 22.1616 27.3857 2.04102 58.6891 5.78125 
2007 11 5 13 0 33 22.2925 27.2598 1.98856 79.5525 5.70312 
2007 11 5 14 0 33 22.2495 27.3569 1.9903 82.2128 5.70312 
2007 11 5 15 0 33 22.2943 27.6133 2.00891 77.1942 5.78125 
2007 11 5 16 0 33 22.3108 27.5991 2.06573 77.1187 5.78125 
2007 11 5 17 0 33 22.6157 28.1104 2.09558 89.5897 5.78125 
2007 11 5 18 0 33 22.6065 28.376 2.17505 84.7389 5.78125 
2007 11 5 19 0 33 22.5809 28.666 2.16235 83.8158 5.70312 
2007 11 5 20 0 33 22.5388 28.6528 2.19635 76.8753 5.78125 
2007 11 5 21 0 33 22.5241 28.7036 2.20721 70.0607 5.78125 
2007 11 5 22 0 33 22.4399 28.4805 2.22723 80.1231 5.70312 
2007 11 5 23 0 33 22.2385 28.082 2.11438 74.6933 5.70312 
2007 11 6 0 0 33 22.1689 27.6479 2.08002 79.1916 5.78125 
2007 11 6 1 0 33 22.2238 27.6514 2.04144 77.681 5.70312 
2007 11 6 2 0 33 22.2421 27.5723 1.97647 63.1538 5.70312 
2007 11 6 3 0 33 22.2714 27.46 2.0777 79.4182 5.70312 
2007 11 6 4 0 33 22.2623 27.478 2.1394 79.2336 5.70312 
2007 11 6 5 0 33 22.3126 27.5586 2.17865 74.9954 5.78125 
2007 11 6 6 0 33 22.3923 27.7119 2.15668 68.0298 5.70312 
2007 11 6 7 0 33 22.2833 27.6831 2.12152 74.6597 5.70312 
2007 11 6 8 0 33 22.0718 27.1323 2.11505 76.4893 5.70312 
2007 11 6 9 0 33 21.9052 26.7017 2.09259 72.2763 5.78125 
2007 11 6 10 0 33 22.0059 26.769 2.05481 74.6765 5.70312 
2007 11 6 11 0 33 22.2385 26.4961 1.96344 82.1289 5.70312 
2007 11 6 12 0 33 22.211 26.4473 1.96829 79.7455 5.70312 
2007 11 6 13 0 33 22.4573 26.7246 1.94653 81.4491 5.78125 
2007 11 6 14 0 33 22.4765 26.6445 1.92645 79.1664 5.70312 
2007 11 6 15 0 33 22.5113 26.605 1.93954 86.4006 5.78125 
2007 11 6 16 0 33 22.6074 26.6929 1.99084 78.7048 5.70312 
2007 11 6 17 0 33 22.536 26.6772 2.02197 85.8383 5.78125 
2007 11 6 18 0 33 22.5745 26.6328 2.07367 79.6867 5.70312 
2007 11 6 19 0 33 22.4271 26.7803 2.12775 65.7303 5.70312 
2007 11 6 20 0 33 22.3053 26.8022 2.17206 83.329 5.70312 
2007 11 6 21 0 33 22.0105 26.4087 2.15375 76.976 5.70312 
2007 11 6 22 0 33 21.8063 25.9956 2.13416 88.6414 5.70312 
2007 11 6 23 0 33 21.6159 26.2935 2.1073 80.7274 5.70312 
2007 11 7 0 0 33 21.3019 26.0571 2.07544 83.136 5.70312 
2007 11 7 1 0 33 21.2387 25.8608 2.09119 63.3385 5.78125 
2007 11 7 2 0 33 21.0831 25.9302 2.06769 58.429 5.70312 
2007 11 7 3 0 33 21.3211 26.0815 2.08887 52.5627 5.70312 
2007 11 7 4 0 33 21.3174 26.1494 2.14069 70.2454 5.78125 
2007 11 7 5 0 33 21.1829 26.0767 2.13721 65.0421 5.70312 
2007 11 7 6 0 33 21.0565 25.9404 2.15259 74.0555 5.70312 
2007 11 7 7 0 33 21.4438 26.3882 2.20502 76.2711 5.70312 
2007 11 7 8 0 33 20.8661 26.1572 2.16791 73.9548 5.70312 
2007 11 7 9 0 33 20.3094 25.792 2.14404 74.7185 5.70312 
2007 11 7 10 0 33 19.772 25.3018 2.02869 79.0405 5.70312 
2007 11 7 11 0 33 19.9863 25.3281 2.07587 71.8231 5.70312 
2007 11 7 12 0 33 20.6519 25.8823 2.00732 72.5784 5.70312 
2007 11 7 13 0 33 20.9787 26.1396 1.96765 79.628 5.70312 
2007 11 7 14 0 33 21.1179 26.0889 2.02753 82.7751 5.70312 
2007 11 7 15 0 33 21.5637 26.8589 1.98746 78.4782 5.70312 
2007 11 7 16 0 33 21.4685 27.0034 2.04242 85.4439 5.70312 
2007 11 7 17 0 33 21.6223 27.6147 2.10632 82.1373 5.70312 
2007 11 7 18 0 33 21.6095 28.1025 2.15356 81.1386 5.78125 
2007 11 7 19 0 33 21.5408 28.1997 2.27069 79.821 5.70312 
2007 11 7 20 0 33 21.6507 28.604 2.29608 67.2325 5.70312 
2007 11 7 21 0 33 21.5308 28.6333 2.32758 62.2391 5.70312 
2007 11 7 22 0 33 21.1426 28.3105 2.35175 65.8897 5.70312 
2007 11 7 23 0 33 21.2543 28.3594 2.34814 61.4418 5.70312 
2007 11 8 0 0 33 20.9778 28.0811 2.34253 77.1103 5.625 
2007 11 8 1 0 33 20.975 27.5889 2.33917 74.9199 5.70312 
2007 11 8 2 0 33 20.9851 27.542 2.27893 71.7392 5.70312 
2007 11 8 3 0 33 20.8084 27.3389 2.25262 71.6721 5.78125 
2007 11 8 4 0 33 20.8157 27.2095 2.2605 68.1641 5.70312 
2007 11 8 5 0 33 20.7681 27.0322 2.22363 62.8517 5.70312 
2007 11 8 6 0 33 20.6693 26.8687 2.20172 58.5464 5.70312 
2007 11 8 7 0 33 20.4971 26.5605 2.24524 65.5876 5.70312 
2007 11 8 8 0 33 20.336 26.5093 2.17615 53.2677 5.70312 
2007 11 8 9 0 33 20.0989 26.3311 2.12006 72.4777 5.70312 
2007 11 8 10 0 33 19.339 25.124 2.06085 79.628 5.70312 
2007 11 8 11 0 33 19.5523 25.4282 1.98514 80.7106 5.70312 
2007 11 8 12 0 33 19.22 24.6494 1.92041 79.1916 5.70312 
2007 11 8 13 0 33 19.9268 24.8911 1.85394 78.2768 5.70312 
2007 11 8 14 0 33 20.6216 25.5044 1.81067 78.5286 5.70312 
2007 11 8 15 0 33 20.8652 25.6997 1.81418 85.0662 5.70312 
2007 11 8 16 0 33 20.8578 25.9424 1.8555 83.8829 5.625 
2007 11 8 17 0 33 20.8524 26.3794 1.92157 83.0521 5.70312 
2007 11 8 18 0 33 20.8102 26.7612 1.96249 80.0896 5.70312 
2007 11 8 19 0 33 20.954 27.2075 2.05725 75.2052 5.70312 
2007 11 8 20 0 33 21.0638 27.6206 2.12872 75.1633 5.70312 
2007 11 8 21 0 33 21.0373 27.8896 2.16852 77.5719 5.70312 
2007 11 8 22 0 33 20.9998 27.9321 2.16583 72.612 5.70312 
2007 11 8 23 0 33 20.889 27.7305 2.25995 77.6558 5.70312 
2007 11 9 0 0 33 20.9476 27.6211 2.23102 71.5378 5.625 
2007 11 9 1 0 33 20.8643 27.6138 2.24823 76.7578 5.70312 
2007 11 9 2 0 33 20.7416 27.146 2.22742 71.3196 5.70312 
2007 11 9 3 0 33 20.8716 27.4019 2.24615 75.7591 5.70312 
2007 11 9 4 0 33 20.8844 27.4971 2.29022 64.8659 5.70312 
2007 11 9 5 0 33 20.9146 27.5918 2.26477 64.0434 5.70312 
2007 11 9 6 0 33 20.8414 27.5728 2.29169 67.9543 5.70312 
2007 11 9 7 0 33 20.8569 27.4839 2.25238 73.4177 5.70312 
2007 11 9 8 0 33 20.7278 27.1064 2.22949 73.7366 5.70312 
2007 11 9 9 0 33 20.5713 26.6147 2.19977 67.1822 5.70312 
2007 11 9 10 0 33 20.4971 26.3926 2.09619 75.222 5.70312 
2007 11 9 11 0 33 20.6299 26.249 2.03943 79.6196 5.70312 
2007 11 9 12 0 33 20.5988 26.1812 1.96484 76.0948 5.625 
2007 11 9 13 0 33 20.6509 25.9492 1.86884 79.1748 5.70312 
2007 11 9 14 0 33 20.8688 26.0752 1.83972 59.713 5.625 
2007 11 9 15 0 33 21.0052 26.0552 1.83875 65.7555 5.70312 
2007 11 9 16 0 33 21.1682 26.1562 1.76892 76.7075 5.70312 
2007 11 9 17 0 33 21.0812 26.1069 1.86526 78.9482 5.70312 
2007 11 9 18 0 33 20.9842 26.2466 1.96664 76.7075 5.70312 
2007 11 9 19 0 33 21.0803 26.9209 2.00592 81.7261 5.625 
2007 11 9 20 0 33 21.0382 27.2388 2.10876 76.1536 5.70312 
2007 11 9 21 0 33 21.1087 27.3867 2.172 76.976 5.70312 
2007 11 9 22 0 33 21.0995 27.5444 2.20502 69.4397 5.70312 
2007 11 9 23 0 33 21.1508 27.4106 2.19324 76.7494 5.70312 
2007 11 10 0 0 33 21.1343 27.1519 2.17731 75.7088 5.70312 
2007 11 10 1 0 33 21.062 26.7832 2.17212 75.5409 5.70312 
2007 11 10 2 0 33 20.9924 26.3042 2.12988 75.7088 5.625 
2007 11 10 3 0 33 21.0327 26.2769 2.07544 75.6584 5.625 
2007 11 10 4 0 33 21.0263 26.2559 2.06702 72.4777 5.70312 
2007 11 10 5 0 33 21.0062 26.0801 2.04895 69.3558 5.70312 
2007 11 10 6 0 33 21.0794 26.0571 1.94199 58.1604 5.70312 
2007 11 10 7 0 33 20.9503 26.022 2.00311 45.0851 5.70312 
2007 11 10 8 0 33 21.0565 26.1616 1.97177 48.6435 5.625 
2007 11 10 9 0 33 20.921 25.7554 1.91217 69.5908 5.70312 
2007 11 10 10 0 33 21.0309 25.7446 1.88797 70.1111 5.625 
2007 11 10 11 0 33 21.2698 25.8486 1.82062 73.7785 5.70312 
2007 11 10 12 0 33 21.7944 26.1079 1.78815 74.324 5.625 
2007 11 10 13 0 33 21.6406 25.8418 1.71243 80.5008 5.625 
2007 11 10 14 0 33 21.7862 25.8755 1.67133 72.142 5.70312 
2007 11 10 15 0 33 21.7001 25.5894 1.651 66.6031 5.625 
2007 11 10 16 0 33 21.5619 25.4854 1.67996 74.0135 5.70312 
2007 11 10 17 0 33 21.6342 25.7612 1.74789 82.4226 5.625 
2007 11 10 18 0 33 21.452 25.7827 1.80972 79.0909 5.625 
2007 11 10 19 0 33 21.5573 26.1401 1.87372 83.606 5.625 
2007 11 10 20 0 33 21.4218 26.8154 2.00769 80.3497 5.625 
2007 11 10 21 0 33 21.3989 27.6206 2.01239 79.0741 5.625 
2007 11 10 22 0 33 21.5921 27.7891 2.06897 79.7707 5.625 
2007 11 10 23 0 33 21.539 27.2974 2.15936 64.2448 5.625 
2007 11 11 0 0 33 21.539 27.5537 2.16028 71.2021 5.625 
2007 11 11 1 0 33 21.5326 27.7246 2.19006 75.1717 5.625 
2007 11 11 2 0 33 21.4786 27.4287 2.16034 76.4305 5.625 
2007 11 11 3 0 33 21.4658 27.314 2.21155 77.2278 5.70312 
2007 11 11 4 0 33 21.5079 27.3062 2.21143 74.4583 5.70312 
2007 11 11 5 0 33 21.4758 27.6992 2.15643 73.7282 5.625 
2007 11 11 6 0 33 21.4758 27.6758 2.14551 75.2724 5.70312 
2007 11 11 7 0 33 21.4621 27.5283 2.10468 73.0232 5.625 
2007 11 11 8 0 33 21.4365 27.2588 2.09131 74.2905 5.625 
2007 11 11 9 0 33 21.3678 26.8174 1.99191 73.1407 5.70312 
2007 11 11 10 0 33 21.2735 26.3608 1.99323 74.8108 5.625 
2007 11 11 11 0 33 21.626 26.2109 1.91586 76.9341 5.70312 
2007 11 11 12 0 33 21.9574 26.3423 1.88226 74.601 5.625 
2007 11 11 13 0 33 21.842 26.1504 1.85843 74.8024 5.625 
2007 11 11 14 0 33 22.0618 26.2593 1.77875 73.9212 5.70312 
2007 11 11 15 0 33 21.7578 26.3438 1.74097 73.8625 5.625 
2007 11 11 16 0 33 21.7322 26.0571 1.7402 71.0846 5.625 
2007 11 11 17 0 33 21.7331 26.0522 1.75626 67.6521 5.625 
2007 11 11 18 0 33 22.309 26.562 1.86185 96.6225 5.625 
2007 11 11 19 0 33 22.189 26.624 1.8873 82.5317 5.625 
2007 11 11 20 0 33 22.1835 26.7192 1.98883 87.9364 5.625 
2007 11 11 21 0 33 21.9821 26.9375 2.06989 84.0759 5.70312 
2007 11 11 22 0 33 21.9098 27.4321 2.14624 77.6894 5.625 
2007 11 11 23 0 33 22.0407 27.2617 2.1991 75.3731 5.625 
2007 11 12 0 0 33 21.9153 27.1851 2.26196 72.2679 5.625 
2007 11 12 1 0 33 21.9702 27.1455 2.31122 68.0801 5.625 
2007 11 12 2 0 33 21.9189 27.2324 2.27618 59.1843 5.625 
2007 11 12 3 0 33 21.9427 27.1782 2.29456 69.4565 5.625 
2007 11 12 4 0 33 21.9244 27.1201 2.34924 67.0143 5.625 
2007 11 12 5 0 33 21.8549 26.752 2.31232 74.5506 5.625 
2007 11 12 6 0 33 21.8851 26.9224 2.32977 66.0492 5.625 
2007 11 12 7 0 33 21.8906 27.0601 2.3125 72.2763 5.70312 
2007 11 12 8 0 33 21.7102 26.5874 2.28406 73.896 5.625 
2007 11 12 9 0 33 21.7496 26.4829 2.24823 69.4901 5.625 
2007 11 12 10 0 33 21.712 26.4287 2.19385 70.0943 5.625 
2007 11 12 11 0 33 21.7249 26.2622 2.12012 70.5475 5.625 
2007 11 12 12 0 33 21.8402 26.4707 2.08844 74.2401 5.625 
2007 11 12 13 0 33 22.233 26.3608 2.01306 73.9967 5.625 
2007 11 12 14 0 33 22.3657 26.3428 1.94046 71.6049 5.625 
2007 11 12 15 0 33 22.5076 26.3623 1.83633 80.3162 5.625 
2007 11 12 16 0 33 22.5919 26.3408 1.82755 75.2136 5.70312 
2007 11 12 17 0 33 22.2998 26.1865 1.77869 75.7927 5.625 
2007 11 12 18 0 33 22.1085 26.0967 1.858 68.6089 5.625 
2007 11 12 19 0 33 22.038 26.1304 1.89005 75.0961 5.54688 
2007 11 12 20 0 33 22.0663 26.4482 1.95187 76.7662 5.625 
2007 11 12 21 0 33 22.1835 26.7808 2.0271 78.3524 5.625 
2007 11 12 22 0 33 22.2687 26.9438 2.08063 79.2168 5.625 
2007 11 12 23 0 33 22.1341 27.4331 2.1637 78.2684 5.625 
2007 11 13 0 0 33 22.1277 27.2852 2.20105 66.964 5.625 
2007 11 13 1 0 33 22.0206 26.9653 2.22314 54.6524 5.625 
2007 11 13 2 0 33 22.0609 27.0674 2.27966 74.0303 5.625 
2007 11 13 3 0 33 22.0471 26.9375 2.21191 71.8651 5.625 
2007 11 13 4 0 33 22.0023 26.7104 2.24097 67.6186 5.54688 
2007 11 13 5 0 33 22.0874 26.854 2.24847 64.8911 5.625 
2007 11 13 6 0 33 22.0856 27.3071 2.25995 67.2913 5.625 
2007 11 13 7 0 33 22.0892 27.1182 2.25861 74.2065 5.625 
2007 11 13 8 0 33 22.0004 26.7339 2.24603 69.1711 5.625 
2007 11 13 9 0 33 21.8851 26.3696 2.20892 73.5519 5.625 
2007 11 13 10 0 33 21.9263 26.4458 2.15289 70.4216 5.625 
2007 11 13 11 0 33 22.0059 26.2852 2.09943 72.1001 5.625 
2007 11 13 12 0 33 22.3355 26.271 2.00592 74.5758 5.625 
2007 11 13 13 0 33 22.5333 26.2349 1.78055 71.3531 5.625 
2007 11 13 14 0 33 22.8299 26.2456 1.90216 81.2057 5.625 
2007 11 13 15 0 33 22.731 25.9136 1.85522 80.6435 5.625 
2007 11 13 16 0 33 22.6999 25.8154 1.82709 69.6327 5.625 
2007 11 13 17 0 33 22.395 25.6021 1.81171 75.4822 5.625 
2007 11 13 18 0 33 22.4234 25.9448 1.75739 69.7166 5.625 
2007 11 13 19 0 33 22.3566 26.1025 1.82321 70.7909 5.625 
2007 11 13 20 0 33 22.2165 26.2568 1.87436 71.6469 5.625 
2007 11 13 21 0 33 22.3904 27.269 1.93475 77.3956 5.625 
2007 11 13 22 0 33 22.3346 27.105 1.99133 77.0432 5.625 
2007 11 13 23 0 33 22.4298 27.5239 2.08435 76.7075 5.625 
2007 11 14 0 0 33 22.3923 27.5752 2.13428 77.0515 5.54688 
2007 11 14 1 0 33 22.5488 27.8853 2.15808 73.0652 5.54688 
2007 11 14 2 0 33 22.4628 27.7456 2.21576 40.4526 5.625 
2007 11 14 3 0 33 22.5781 28.0161 2.20752 64.7484 5.54688 
2007 11 14 4 0 33 22.5067 27.8672 2.2135 75.6668 5.625 
2007 11 14 5 0 33 22.5607 27.8818 2.20935 68.399 5.625 
2007 11 14 6 0 33 22.4994 27.9019 2.263 63.4224 5.625 
2007 11 14 7 0 33 22.5003 27.9609 2.21191 67.4423 5.625 
2007 11 14 8 0 33 22.3218 27.5127 2.21881 72.9729 5.54688 
2007 11 14 9 0 33 22.2549 27.3276 2.2132 61.5257 5.625 
2007 11 14 10 0 33 22.1936 27.0127 2.11554 68.5921 5.625 
2007 11 14 11 0 33 22.3282 26.6973 2.02509 69.2719 5.625 
2007 11 14 12 0 33 22.4866 26.6611 2.03284 67.2241 5.54688 
2007 11 14 13 0 33 22.7905 26.7764 1.95328 59.6458 5.54688 
2007 11 14 14 0 33 23.0945 26.8418 1.85684 69.0033 5.54688 
2007 11 14 15 0 33 23.1979 26.8335 1.79257 69.0536 5.625 
2007 11 14 16 0 33 23.2181 26.6689 1.77975 74.5255 5.625 
2007 11 14 17 0 33 23.0762 26.5156 1.73926 68.9278 5.625 
2007 11 14 18 0 33 23.5175 26.8794 1.74472 77.2697 5.625 
2007 11 14 19 0 33 22.7841 26.0659 1.76743 76.6991 5.54688 
2007 11 14 20 0 33 22.7136 26.2744 1.83792 70.7741 5.625 
2007 11 14 21 0 33 22.6797 26.5229 1.88425 72.2427 5.54688 
2007 11 14 22 0 33 22.7173 27.0752 1.95084 75.8347 5.54688 
2007 11 14 23 0 33 22.7786 27.2437 2.05585 74.6933 5.625 
2007 11 15 0 0 33 22.7631 27.3301 2.05273 78.1509 5.625 
2007 11 15 1 0 33 22.7264 27.2021 2.1413 76.7494 5.54688 
2007 11 15 2 0 33 22.3126 26.2075 2.13647 76.2039 5.625 
2007 11 15 3 0 33 22.6926 26.1558 2.09351 85.9642 5.625 
2007 11 15 4 0 33 22.2037 26.3877 2.1452 77.0096 5.54688 
2007 11 15 5 0 33 21.7871 25.8872 2.091 79.2 5.625 
2007 11 15 6 0 33 21.1966 25.1548 2.07361 78.9566 5.54688 
2007 11 15 7 0 33 21.073 25.0894 2.02985 82.0282 5.625 
2007 11 15 8 0 33 20.4184 24.8213 1.99368 81.4491 5.54688 
2007 11 15 9 0 33 19.8572 24.0063 2.00092 79.2168 5.54688 
2007 11 15 10 0 33 21.3916 25.231 1.9375 79.0321 5.54688 
2007 11 15 11 0 33 21.4438 25.1279 1.89328 83.6479 5.54688 
2007 11 15 12 0 33 21.5372 25.0859 1.85327 83.0437 5.54688 
2007 11 15 13 0 33 20.206 24.0576 1.73944 88.7085 5.54688 
2007 11 15 14 0 33 20.7224 24.2241 1.66586 86.2328 5.625 
2007 11 15 15 0 33 21.0318 24.6948 1.59161 88.4399 5.625 
2007 11 15 16 0 33 21.5482 24.9438 1.52246 83.8326 5.54688 
2007 11 15 17 0 33 21.5948 25.0161 1.49918 80.8197 5.54688 
2007 11 15 18 0 33 21.3733 24.5 1.53943 76.9341 5.625 
2007 11 15 19 0 33 21.0657 24.1548 1.5611 76.7746 5.54688 
2007 11 15 20 0 33 20.9805 24.2891 1.59897 79.1161 5.54688 
2007 11 15 21 0 33 20.9338 24.1616 1.6489 76.3885 5.625 
2007 11 15 22 0 33 20.7416 24.7173 1.71808 73.1491 5.54688 
2007 11 15 23 0 34 21.3742 26.0674 1.86069 73.6526 5.54688 
2007 11 16 0 0 33 21.4273 27.4819 1.91873 63.5063 5.625 
2007 11 16 1 0 33 20.455 25.5708 1.94254 75.9773 5.625 
2007 11 16 2 0 33 20.0009 24.8335 2.00189 72.6959 5.625 
2007 11 16 3 0 33 20.954 25.2354 2.03503 66.9052 5.54688 
2007 11 16 4 0 33 20.7251 25.5591 2.06482 62.281 5.625 
2007 11 16 5 0 33 20.4871 26.333 2.11182 69.5152 5.54688 
2007 11 16 6 0 33 20.4651 26.9326 2.15631 70.3041 5.625 
2007 11 16 7 0 33 20.4092 27.0552 2.24493 68.6928 5.625 
2007 11 16 8 0 33 20.7297 27.5894 2.22742 71.0091 5.54688 
2007 11 16 9 0 33 19.6677 25.3481 2.19635 70.7573 5.54688 
2007 11 16 10 0 33 19.6704 25.2012 2.19519 71.1349 5.54688 
2007 11 16 11 0 34 20.2087 26.0127 1.92731 74.987 5.625 
2007 11 16 12 0 33 20.1941 26.2061 2.09491 72.7379 5.54688 
2007 11 16 13 0 33 19.9936 25.793 2.05713 79.4685 5.54688 
2007 11 16 14 0 34 19.9927 25.6802 1.98502 75.3563 5.54688 
2007 11 16 15 0 33 20.2884 26.2925 1.97476 77.5719 5.54688 
2007 11 16 16 0 34 20.4111 26.2603 1.91724 76.5984 5.54688 
2007 11 16 17 0 33 20.3424 26.0747 1.89917 78.8055 5.54688 
2007 11 16 18 0 33 20.3488 25.9551 1.86868 77.639 5.54688 
2007 11 16 19 0 33 20.2719 26.0039 1.85895 72.0833 5.54688 
2007 11 16 20 0 33 20.2719 25.8911 1.80475 71.3531 5.54688 
2007 11 16 21 0 34 20.2783 25.7368 1.8566 71.4874 5.625 
2007 11 16 22 0 33 20.3424 25.7046 1.93048 72.7547 5.54688 
2007 11 16 23 0 34 20.4623 26.6133 1.95856 78.1845 5.54688 
2007 11 17 0 0 33 20.4944 27.4941 2.04144 82.1541 5.54688 
2007 11 17 1 0 33 20.6226 28.1143 2.11707 78.7132 5.54688 
2007 11 17 2 0 33 20.4376 28.1558 2.14612 73.9548 5.54688 
2007 11 17 3 0 33 20.3909 28.3276 2.23303 64.3875 5.54688 
2007 11 17 4 0 34 20.3214 28.1104 2.2652 66.6954 5.54688 
2007 11 17 5 0 33 20.4239 28.0508 2.28925 67.9039 5.54688 
2007 11 17 6 0 34 19.9496 27.6226 2.25482 75.9857 5.54688 
2007 11 17 7 0 33 20.0897 26.8018 2.23956 71.3364 5.54688 
2007 11 17 8 0 34 20.0293 26.2373 2.2132 74.836 5.54688 
2007 11 17 9 0 33 20.0861 25.8398 2.18335 72.6372 5.54688 
2007 11 17 10 0 34 20.108 25.667 2.1615 69.2047 5.54688 
2007 11 17 11 0 33 20.0916 25.3921 2.01752 72.7463 5.54688 
2007 11 17 12 0 33 19.9963 25.1147 2.05145 71.3364 5.54688 
2007 11 17 13 0 33 19.502 24.5439 2.013 64.5638 5.54688 
2007 11 17 14 0 33 19.8215 24.7144 1.96115 71.479 5.54688 
2007 11 17 15 0 33 19.3143 24.0986 1.93674 73.9464 5.54688 
2007 11 17 16 0 33 19.3948 23.9194 1.84744 77.0264 5.54688 
2007 11 17 17 0 33 19.5413 23.9043 1.81805 76.9928 5.54688 
2007 11 17 18 0 34 19.3472 23.8149 1.80261 70.5811 5.54688 
2007 11 17 19 0 33 19.4077 23.5293 1.73578 75.0877 5.54688 
2007 11 17 20 0 34 19.4644 23.7788 1.69995 68.2732 5.54688 
2007 11 17 21 0 33 20.3214 24.3394 1.70114 69.8174 5.54688 
2007 11 17 22 0 34 20.3168 24.2827 1.77039 68.0466 5.54688 
2007 11 17 23 0 33 20.499 24.8745 1.80484 72.4106 5.54688 
2007 11 18 0 0 34 20.368 25.896 1.90564 76.2543 5.54688 
2007 11 18 1 0 33 20.26 26.1821 2.01019 76.2123 5.54688 
2007 11 18 2 0 34 20.3296 27.3315 2.08069 73.3002 5.54688 
2007 11 18 3 0 33 20.2133 26.4551 2.15741 77.4963 5.54688 
2007 11 18 4 0 33 20.0751 25.3589 2.14447 75.5241 5.54688 
2007 11 18 5 0 34 20.0824 25.4585 2.31183 71.3196 5.54688 
2007 11 18 6 0 33 20.0275 25.1343 2.17346 77.681 5.54688 
2007 11 18 7 0 33 19.8727 24.5332 2.17352 77.7313 5.54688 
2007 11 18 8 0 33 19.5139 23.4854 2.14038 69.9432 5.54688 
2007 11 18 9 0 33 19.5642 23.2773 2.12665 69.4565 5.54688 
2007 11 18 10 0 33 19.5734 23.2759 2.09448 64.547 5.54688 
2007 11 18 11 0 33 19.6915 23.0278 2.05884 76.8669 5.54688 
2007 11 18 12 0 33 19.8682 22.9448 2.05377 75.9354 5.54688 
2007 11 18 13 0 34 20.0146 22.7964 2.01801 71.9826 5.54688 
2007 11 18 14 0 33 19.9286 22.5171 1.95343 76.4137 5.46875 
2007 11 18 15 0 33 19.978 22.5396 1.90002 76.6823 5.54688 
2007 11 18 16 0 33 20.2911 22.8267 1.87451 72.8638 5.54688 
2007 11 18 17 0 33 20.6519 22.8223 1.83804 72.8889 5.54688 
2007 11 18 18 0 33 20.7224 22.5225 1.81415 68.3151 5.54688 
2007 11 18 19 0 33 20.5621 22.5239 1.81824 73.0316 5.54688 
2007 11 18 20 0 33 20.8075 22.0952 1.81882 71.6133 5.54688 
2007 11 18 21 0 34 20.8524 22.0137 1.8317 54.2244 5.54688 
2007 11 18 22 0 33 20.8423 21.8359 1.80121 65.4869 5.54688 
2007 11 18 23 0 33 20.8789 21.6597 1.82111 66.4772 5.54688 
2007 11 19 0 0 34 20.91 21.6763 1.92822 62.6083 5.54688 
2007 11 19 1 0 33 20.8542 21.751 1.96875 62.0293 5.46875 
2007 11 19 2 0 33 20.7846 21.7749 2.03809 58.5045 5.54688 
2007 11 19 3 0 33 20.7837 21.5264 2.11377 64.2281 5.54688 
2007 11 19 4 0 33 20.7828 21.5181 2.14844 60.5858 5.54688 
2007 11 19 5 0 34 20.6912 21.2529 2.12927 58.8402 5.54688 
2007 11 19 6 0 33 20.5658 21.1724 2.1673 58.6304 5.54688 
2007 11 19 7 0 33 20.5539 21.3037 2.14764 59.7382 5.54688 
2007 11 19 8 0 33 20.4642 21.5923 2.12286 67.5766 5.54688 
2007 11 19 9 0 33 20.5392 21.2944 2.11383 65.5708 5.54688 
2007 11 19 10 0 33 20.683 20.6089 2.08606 61.7943 5.54688 
2007 11 19 11 0 33 20.7471 20.0732 2.04547 61.8027 5.54688 
2007 11 19 12 0 33 20.8762 19.6328 2.01849 58.2527 5.46875 
2007 11 19 13 0 33 20.9631 19.0093 1.98932 55.8022 5.54688 
2007 11 19 14 0 33 21.095 18.541 1.96741 55.3741 5.54688 
2007 11 19 15 0 33 21.0986 18.1201 1.96979 57.3715 5.54688 
2007 11 19 16 0 33 21.2579 17.6187 1.97513 57.4554 5.54688 
2007 11 19 17 0 33 21.4621 17.1816 1.98135 58.4877 5.54688 
2007 11 19 18 0 33 21.3477 17.4399 1.99002 58.4709 5.46875 
2007 11 19 19 0 33 21.6077 17.8169 1.97003 59.9228 5.54688 
2007 11 19 20 0 33 21.4786 17.0181 1.94382 55.072 5.54688 
2007 11 19 21 0 33 21.7221 18.3003 1.92154 56.6582 5.54688 
2007 11 19 22 0 33 21.0529 16.7236 1.90509 61.1397 5.54688 
2007 11 19 23 0 33 21.0107 16.436 1.89948 48.1987 5.54688 
2007 11 20 0 0 33 21.0062 16.1309 1.90991 57.1114 5.54688 
2007 11 20 1 0 33 21.0126 16.3169 1.94998 50.9598 5.46875 
2007 11 20 2 0 33 20.6573 16.2134 1.98785 57.2876 5.46875 
2007 11 20 3 0 33 20.9082 16.2764 2.04321 50.6577 5.54688 
2007 11 20 4 0 33 21.0336 16.3223 2.10107 37.9852 5.54688 
2007 11 20 5 0 33 20.932 16.3179 2.13751 52.2606 5.54688 
2007 11 20 6 0 33 20.8276 15.5002 2.14441 60.4599 5.54688 
2007 11 20 7 0 33 20.6583 15.2371 2.13916 55.4832 5.54688 
2007 11 20 8 0 34 20.6125 15.2688 2.10834 64.3372 5.54688 
2007 11 20 9 0 33 20.694 15.1555 2.07428 56.4819 5.54688 
2007 11 20 10 0 33 20.7452 15.1169 2.03168 55.8525 5.54688 
2007 11 20 11 0 33 21.0529 15.3557 2.00116 52.7641 5.54688 
2007 11 20 12 0 33 20.9906 15.0085 1.97488 51.6899 5.54688 
2007 11 20 13 0 33 21.2451 15.2117 1.96402 55.1476 5.54688 
2007 11 20 14 0 33 20.7663 15.5161 2.00415 60.6194 5.54688 
2007 11 20 15 0 33 20.7892 17.0493 2.06726 64.8071 5.46875 
2007 11 20 16 0 33 20.9988 19.2783 2.12402 69.7502 5.54688 
2007 11 20 17 0 33 20.9302 21.1226 2.19196 64.2952 5.46875 
2007 11 20 18 0 33 21.116 20.4736 2.21405 72.0581 5.54688 
2007 11 20 19 0 33 21.0995 20.8779 2.24207 68.1892 5.46875 
2007 11 20 20 0 33 21.0995 21.3066 2.21655 67.2829 5.46875 
2007 11 20 21 0 33 21.2277 20.6216 2.2077 68.7683 5.54688 
2007 11 20 22 0 33 21.0464 20.7427 2.11554 65.6464 5.54688 
2007 11 20 23 0 33 21.0327 19.4512 2.09564 63.2965 5.54688 
2007 11 21 0 0 33 21.0336 18.9131 2.0686 64.9162 5.54688 
2007 11 21 1 0 33 21.0419 18.2979 2.06531 63.6658 5.54688 
2007 11 21 2 0 33 20.9897 18.5 2.0907 59.6542 5.54688 
2007 11 21 3 0 33 20.878 18.6875 2.09235 64.782 5.54688 
2007 11 21 4 0 34 20.8359 19.1206 2.1217 64.8827 5.46875 
2007 11 21 5 0 33 20.802 19.2622 2.14404 67.1989 5.54688 
2007 11 21 6 0 33 20.8368 19.3506 2.1543 67.0311 5.54688 
2007 11 21 7 0 33 20.8093 19.3276 2.09436 66.3094 5.54688 
2007 11 21 8 0 33 20.9906 18.4971 2.07489 61.9789 5.46875 
2007 11 21 9 0 33 20.899 17.771 2.03278 54.9126 5.54688 
2007 11 21 10 0 33 21.1087 17.334 1.92813 59.6458 5.46875 
2007 11 21 11 0 33 21.041 17.3745 1.9361 60.4263 5.54688 
2007 11 21 12 0 33 20.9521 17.7334 1.88263 61.0893 5.54688 
2007 11 21 13 0 33 21.1783 17.2578 1.85709 63.8672 5.54688 
2007 11 21 14 0 33 20.9879 17.3887 1.86264 63.8504 5.46875 
2007 11 21 15 0 33 20.965 17.707 1.9346 62.5832 5.54688 
2007 11 21 16 0 33 20.9421 19.0942 2.01752 67.8871 5.54688 
2007 11 21 17 0 33 21.0364 21.9395 2.09888 68.2144 5.54688 
2007 11 21 18 0 33 21.1755 20.8423 2.17572 66.3513 5.54688 
2007 11 21 19 0 33 21.3348 20.6055 2.21997 67.2913 5.46875 
2007 11 21 20 0 33 21.203 20.9341 2.22778 69.2551 5.54688 
2007 11 21 21 0 33 21.3834 20.8037 2.25598 71.7644 5.54688 
2007 11 21 22 0 33 21.7102 18.9731 2.18506 66.259 5.46875 
2007 11 21 23 0 33 21.3623 18.6543 2.14368 69.4061 5.46875 
2007 11 22 0 0 33 21.4127 18.5796 2.11133 67.9459 5.46875 
2007 11 22 1 0 33 21.3586 16.856 2.04053 72.4777 5.54688 
2007 11 22 2 0 33 20.7864 16.8262 2.02319 76.8921 5.46875 
2007 11 22 3 0 33 19.8654 16.4463 1.76639 77.5551 5.54688 
2007 11 22 4 0 33 18.9883 16.4365 1.90701 77.7817 5.46875 
2007 11 22 5 0 33 17.9556 16.1426 1.92197 82.6744 5.46875 
2007 11 22 6 0 34 19.0698 17.1367 1.8812 78.1761 5.46875 
2007 11 22 7 0 33 17.7139 16.4175 1.78482 80.7022 5.46875 
2007 11 22 8 0 33 17.2672 16.0659 1.71979 82.4982 5.46875 
2007 11 22 9 0 33 18.8593 16.0576 1.70358 78.2433 5.46875 
2007 11 22 10 0 33 18.4116 15.678 1.63287 79.7791 5.54688 
2007 11 22 11 0 33 17.8027 15.2551 1.57428 81.9023 5.46875 
2007 11 22 12 0 33 19.1467 15.6074 1.52823 77.0599 5.54688 
2007 11 22 13 0 33 19.3408 15.634 1.48163 77.1019 5.46875 
2007 11 22 14 0 33 19.4699 15.6147 1.48303 76.1284 5.46875 
2007 11 22 15 0 34 19.4177 15.832 1.56714 74.4835 5.46875 
2007 11 22 16 0 33 19.0662 15.918 1.63702 73.4596 5.46875 
2007 11 22 17 0 33 19.415 16.8643 1.74429 75.9521 5.46875 
2007 11 22 18 0 33 19.3994 19.1523 1.86829 75.7088 5.46875 
2007 11 22 19 0 33 19.2868 20.3833 1.96771 75.8682 5.46875 
2007 11 22 20 0 34 18.7073 19.5352 2.00433 75.3059 5.46875 
2007 11 22 21 0 33 18.5406 19.0767 2.06061 78.3524 5.54688 
2007 11 22 22 0 33 17.7881 16.6636 2.13623 78.6461 5.46875 
2007 11 22 23 0 33 18.5324 18.7725 2.14709 73.04 5.46875 
2007 11 23 0 0 33 18.3347 19.7539 2.44733 76.4893 5.46875 
2007 11 23 1 0 33 18.2129 19.8286 2.40155 77.4544 5.46875 
2007 11 23 2 0 34 17.9062 19.1479 2.42236 79.1245 5.46875 
2007 11 23 3 0 33 17.7112 18.7002 2.38525 78.344 5.46875 
2007 11 23 4 0 34 16.9952 17.3647 2.354 79.1077 5.46875 
2007 11 23 5 0 34 16.9952 17.0063 2.30164 78.5538 5.46875 
2007 11 23 6 0 33 17.8046 17.7446 2.32074 76.9928 5.46875 
2007 11 23 7 0 34 17.3257 17.3506 2.258 76.9928 5.46875 
2007 11 23 8 0 34 16.5952 16.7456 2.25946 78.6293 5.46875 
2007 11 23 9 0 33 16.3791 16.6353 2.21313 78.0838 5.46875 
2007 11 23 10 0 33 17.1051 16.8364 2.13776 76.9005 5.46875 
2007 11 23 11 0 33 17.0538 16.8081 2.05164 76.6151 5.46875 
2007 11 23 12 0 33 17.3285 16.5781 2.07782 75.1129 5.46875 
2007 11 23 13 0 34 17.2498 16.6982 2.02795 78.4698 5.46875 
2007 11 23 14 0 33 18.0014 16.9541 2.05035 73.8205 5.46875 
2007 11 23 15 0 34 18.5178 17.3345 2.07593 73.8792 5.46875 
2007 11 23 16 0 33 18.5919 18.1724 2.13947 72.9393 5.46875 
2007 11 23 17 0 33 18.526 19.9243 2.25818 75.1549 5.46875 
2007 11 23 18 0 34 18.3319 23.0195 2.35596 80.6351 5.46875 
2007 11 23 19 0 33 18.2898 23.3301 2.44751 79.5525 5.46875 
2007 11 23 20 0 33 18.1589 23.8345 2.56311 78.1845 5.46875 
2007 11 23 21 0 34 18.1168 23.8794 2.63098 74.6597 5.46875 
2007 11 23 22 0 34 18.1689 23.9473 2.68994 73.3757 5.46875 
2007 11 23 23 0 34 17.811 23.0117 2.71844 74.0639 5.46875 
2007 11 24 0 0 34 17.3541 22.0415 2.72125 77.211 5.46875 
2007 11 24 1 0 34 17.7222 23.2993 2.74872 78.5034 5.46875 
2007 11 24 2 0 34 17.681 23.4258 2.7655 71.9658 5.46875 
2007 11 24 3 0 34 17.5061 23.2095 2.76221 77.2781 5.46875 
2007 11 24 4 0 34 17.5519 23.6401 2.83441 78.1174 5.46875 
2007 11 24 5 0 34 17.388 23.4268 2.7998 77.9411 5.46875 
2007 11 24 6 0 34 17.2296 22.9229 2.84033 78.8727 5.46875 
2007 11 24 7 0 34 16.8689 22.4199 2.79156 76.9005 5.46875 
2007 11 24 8 0 34 15.3418 17.292 2.6662 80.0224 5.46875 
2007 11 24 9 0 34 16.8835 21.7295 2.68372 78.0754 5.46875 
2007 11 24 10 0 34 16.4807 20.272 2.73083 82.2212 5.46875 
2007 11 24 11 0 34 16.1447 19.5078 2.6319 82.943 5.39062 
2007 11 24 12 0 34 15.1541 18.2847 2.53278 83.2115 5.39062 
2007 11 24 13 0 34 15.2823 17.563 2.59106 78.2349 5.46875 
2007 11 24 14 0 34 15.4855 17.8638 2.5191 79.435 5.46875 
2007 11 24 15 0 34 15.3665 17.6001 2.45911 78.6041 5.46875 
2007 11 24 16 0 34 15.1221 17.4209 2.43347 77.5551 5.46875 
2007 11 24 17 0 34 14.895 17.3916 2.45898 77.597 5.46875 
2007 11 24 18 0 33 16.8103 18.1646 2.58691 72.7379 5.39062 
2007 11 24 19 0 34 17.4374 18.3403 2.6333 66.2086 5.46875 
2007 11 24 20 0 34 17.1893 18.2437 2.76373 69.0033 5.46875 
2007 11 24 21 0 34 16.4606 17.8481 2.83307 71.1853 5.46875 
2007 11 24 22 0 34 15.892 17.6196 2.91986 78.7888 5.46875 
2007 11 24 23 0 34 15.2594 17.249 2.96027 75.9018 5.46875 
2007 11 25 0 0 34 15.7428 17.2788 2.96143 69.062 5.46875 
2007 11 25 1 0 34 15.979 17.3599 2.9848 73.3337 5.46875 
2007 11 25 2 0 34 15.925 17.1987 2.97839 74.7353 5.39062 
2007 11 25 3 0 34 15.8664 17.061 2.95074 71.8147 5.46875 
2007 11 25 4 0 34 15.7016 16.6621 2.96429 73.7534 5.46875 
2007 11 25 5 0 34 15.8426 16.5762 2.94739 75.071 5.46875 
2007 11 25 6 0 34 15.8325 16.2866 2.84595 72.612 5.46875 
2007 11 25 7 0 34 15.773 16.1099 2.80969 75.4738 5.39062 
2007 11 25 8 0 34 16.2408 15.6118 2.77014 72.0245 5.39062 
2007 11 25 9 0 34 16.1273 15.1926 2.6731 72.0833 5.46875 
2007 11 25 10 0 34 16.2399 14.9082 2.60785 70.2705 5.39062 
2007 11 25 11 0 34 16.2509 14.6248 2.61627 68.2312 5.46875 
2007 11 25 12 0 34 16.1777 14.1453 2.49744 68.5333 5.39062 
2007 11 25 13 0 34 16.1511 13.998 2.40546 68.4494 5.46875 
2007 11 25 14 0 34 16.044 13.6147 2.34155 69.1963 5.46875 
2007 11 25 15 0 34 15.8499 13.2349 2.23163 70.0272 5.46875 
2007 11 25 16 0 34 15.7227 12.9712 2.13013 69.0117 5.46875 
2007 11 25 17 0 34 15.6357 12.9109 2.2016 70.2118 5.39062 
2007 11 25 18 0 34 15.5597 12.4988 2.24036 70.6062 5.39062 
2007 11 25 19 0 34 15.3198 12.3474 2.23657 73.8373 5.39062 
2007 11 25 20 0 34 15.2475 11.9919 2.38232 72.6959 5.46875 
2007 11 25 21 0 34 15.6018 13.0703 2.49713 68.8103 5.39062 
2007 11 25 22 0 34 15.3098 14.1897 2.50195 74.7101 5.39062 
2007 11 25 23 0 34 14.7787 12.4902 2.54016 75.3731 5.46875 
2007 11 26 0 0 34 15.015 12.4585 2.58453 74.5758 5.39062 
2007 11 26 1 0 34 14.9765 14.4885 2.586 75.4318 5.39062 
2007 11 26 2 0 34 14.8474 13.7031 2.56189 75.843 5.39062 
2007 11 26 3 0 34 14.2542 12.0303 2.54474 76.8669 5.46875 
2007 11 26 4 0 34 14.267 11.6963 2.47528 76.6403 5.46875 
2007 11 26 5 0 34 14.2661 11.4187 2.4054 75.7004 5.39062 
2007 11 26 6 0 34 14.5856 11.7571 2.32819 73.6443 5.39062 
2007 11 26 7 0 34 14.4308 11.4805 2.35565 73.703 5.39062 
2007 11 26 8 0 34 14.4318 12.5271 2.32135 74.4835 5.39062 
2007 11 26 9 0 34 13.2645 10.9285 2.271 77.7565 5.46875 
2007 11 26 10 0 34 13.8696 11.0796 2.2597 75.7675 5.39062 
2007 11 26 11 0 34 13.5162 10.4768 2.16681 76.9844 5.39062 
2007 11 26 12 0 34 13.616 10.8987 2.08801 79.1916 5.39062 
2007 11 26 13 0 34 13.9886 10.7043 1.99982 78.495 5.39062 
2007 11 26 14 0 34 14.5059 10.9043 1.96094 82.2128 5.39062 
2007 11 26 15 0 34 14.6295 10.9551 1.88083 79.8546 5.39062 
2007 11 26 16 0 34 15.0946 11.1072 1.7746 87.735 5.39062 
2007 11 26 17 0 34 15.0946 11.0923 1.78915 82.045 5.39062 
2007 11 26 18 0 34 15.0095 10.9592 1.7807 78.2097 5.39062 
2007 11 26 19 0 34 14.657 10.7661 1.86728 79.0993 5.39062 
2007 11 26 20 0 34 14.6057 10.6501 1.95645 75.7507 5.39062 
2007 11 26 21 0 34 14.6844 10.7371 2.05023 75.0626 5.39062 
2007 11 26 22 0 34 14.8428 12.7012 2.20081 75.8598 5.39062 
2007 11 26 23 0 34 14.8483 14.8533 2.29291 77.6054 5.39062 
2007 11 27 0 0 34 14.8062 17.4229 2.36414 79.3007 5.39062 
2007 11 27 1 0 34 14.2432 15.7888 2.40979 77.4963 5.39062 
2007 11 27 2 0 34 14.5526 14.9934 2.4715 77.1019 5.39062 
2007 11 27 3 0 34 14.5535 15.0786 2.48724 77.169 5.39062 
2007 11 27 4 0 34 14.2981 14.9319 2.51379 78.5706 5.39062 
2007 11 27 5 0 34 14.3137 14.2805 2.46777 77.1019 5.39062 
2007 11 27 6 0 34 14.3329 14.0083 2.49939 76.9592 5.39062 
2007 11 27 7 0 34 13.7708 13.0552 2.51581 78.8139 5.39062 
2007 11 27 8 0 34 13.7076 11.9521 2.49518 78.772 5.39062 
2007 11 27 9 0 34 13.8522 11.8313 2.51056 75.692 5.39062 
2007 11 27 10 0 34 13.8824 11.76 2.46259 74.8947 5.39062 
2007 11 27 11 0 34 13.9355 11.9148 2.43414 78.4363 5.39062 
2007 11 27 12 0 34 13.9804 12.6965 2.40588 76.7075 5.39062 
2007 11 27 13 0 34 14.1058 12.2136 2.30615 78.0502 5.39062 
2007 11 27 14 0 34 14.1663 12.2014 2.2077 78.9314 5.39062 
2007 11 27 15 0 34 14.2047 12.1328 2.13458 80.1651 5.39062 
2007 11 27 16 0 34 14.472 12.4685 2.0376 77.1439 5.39062 
2007 11 27 17 0 34 14.5911 12.1094 2.06036 77.5467 5.39062 
2007 11 27 18 0 34 14.6506 12.6604 2.00903 77.9411 5.46875 
2007 11 27 19 0 34 14.6588 13.7786 2.0437 77.2278 5.39062 
2007 11 27 20 0 34 14.6268 13.9465 2.10236 77.1355 5.39062 
2007 11 27 21 0 34 14.6185 14.4297 2.23883 78.0922 5.39062 
2007 11 27 22 0 34 14.5764 16.1738 2.30957 78.1006 5.39062 
2007 11 27 23 0 34 14.5572 16.562 2.41376 78.4447 5.39062 
2007 11 28 0 0 34 14.5782 16.8638 2.49243 77.6306 5.39062 
2007 11 28 1 0 34 14.5517 16.9971 2.54547 77.1187 5.39062 
2007 11 28 2 0 34 14.4785 17.0103 2.59119 77.1439 5.39062 
2007 11 28 3 0 34 14.386 16.7471 2.64087 77.8488 5.39062 
2007 11 28 4 0 34 14.4199 16.2686 2.64172 74.2989 5.39062 
2007 11 28 5 0 34 14.342 15.3667 2.67181 78.7468 5.39062 
2007 11 28 6 0 34 14.3521 14.9131 2.65247 78.7888 5.39062 
2007 11 28 7 0 34 14.3109 14.7681 2.66278 78.0418 5.39062 
2007 11 28 8 0 34 14.2413 14.4343 2.66473 78.0838 5.39062 
2007 11 28 9 0 34 14.234 14.3748 2.65332 76.5228 5.39062 
2007 11 28 10 0 34 14.1663 13.7915 2.60284 79.6532 5.39062 
2007 11 28 11 0 34 14.2111 13.7786 2.58075 79.7539 5.39062 
2007 11 28 12 0 34 14.31 13.6577 2.47144 77.3956 5.39062 
2007 11 28 13 0 34 14.4501 13.5852 2.44617 76.0277 5.39062 
2007 11 28 14 0 34 14.6185 13.8032 2.31873 78.2433 5.39062 
2007 11 28 15 0 34 14.7202 14.3755 2.26678 79.0237 5.39062 
2007 11 28 16 0 34 14.9655 14.0322 2.1983 78.688 5.39062 
2007 11 28 17 0 34 15.0131 14.5679 2.1571 77.6642 5.39062 
2007 11 28 18 0 34 14.9738 14.7776 2.14209 76.8753 5.39062 
2007 11 28 19 0 34 14.9463 14.9968 2.11926 74.4331 5.39062 
2007 11 28 20 0 34 14.906 15.165 2.15686 77.6558 5.39062 
2007 11 28 21 0 34 14.8676 15.2495 2.20062 75.0542 5.39062 
2007 11 28 22 0 34 14.8209 15.3513 2.28528 75.3479 5.39062 
2007 11 28 23 0 34 14.7806 15.7261 2.38446 76.313 5.39062 
2007 11 29 0 0 34 14.7989 16.3398 2.44342 65.403 5.39062 
2007 11 29 1 0 34 14.8309 16.7002 2.51099 68.5249 5.39062 
2007 11 29 2 0 34 14.8502 17.0122 2.51746 78.7804 5.3125 
2007 11 29 3 0 34 14.8401 17.3735 2.58282 75.0458 5.39062 
2007 11 29 4 0 34 14.9051 17.145 2.60248 70.8412 5.39062 
2007 11 29 5 0 34 14.8785 17.3379 2.60675 75.5829 5.39062 
2007 11 29 6 0 34 14.8566 17.478 2.57544 76.2123 5.39062 
2007 11 29 7 0 34 14.8145 17.1816 2.58575 77.6474 5.39062 
2007 11 29 8 0 34 14.9152 16.3398 2.5719 73.661 5.39062 
2007 11 29 9 0 34 14.95 15.7339 2.53796 74.8444 5.3125 
2007 11 29 10 0 34 14.8007 14.7734 2.50354 75.457 5.39062 
2007 11 29 11 0 34 15.08 14.9207 2.44836 73.317 5.39062 
2007 11 29 12 0 34 15.6522 0.630676 0.183861 102.967 5.39062 
2007 11 29 13 0 33 16.8057 0.537704 0.194786 103.278 5.39062 
2007 11 29 14 0 33 17.5217 0.479446 0.187103 103.79 5.39062 
2007 11 29 15 0 33 20.7755 0.371674 0.183994 105.888 5.39062 
2007 11 29 15 0 33 20.7755 0.371674 0.183994 105.888 5.39062 
